#WL(nm)   %
300.10	-0.028354391
300.28	-0.027714839
300.46	-0.029412502
300.64	-0.027202765
300.82	-0.029194929
301.00	-0.027758371
301.18	-0.027748540
301.36	-0.027731556
301.54	-0.027872540
301.72	-0.027451808
301.90	-0.028217906
302.08	-0.026226748
302.26	-0.026158726
302.44	-0.027259383
302.62	-0.027859978
302.80	-0.027903231
302.98	-0.029425845
303.16	-0.027772648
303.34	-0.027876817
303.52	-0.029443955
303.70	-0.028066359
303.88	-0.027709085
304.06	-0.028529368
304.24	-0.028671976
304.42	-0.028519901
304.60	-0.028235113
304.78	-0.027567957
304.96	-0.026585875
305.14	-0.026510319
305.32	-0.026402991
305.50	-0.025633810
305.68	-0.026264073
305.86	-0.026068354
306.04	-0.027327742
306.22	-0.025028951
306.40	-0.027040748
306.58	-0.026230477
306.76	-0.028486693
306.94	-0.024976883
307.12	-0.021541361
307.30	-0.017077066
307.48	-0.012437535
307.66	-0.016362237
307.84	-0.020580675
308.02	-0.025161598
308.20	-0.026963465
308.38	-0.028093686
308.56	-0.026156889
308.74	-0.029116610
308.92	-0.028189205
309.10	-0.028613137
309.28	-0.029015314
309.46	-0.028718470
309.64	-0.027763460
309.82	-0.029317440
310.00	-0.027555309
310.18	-0.028413948
310.36	-0.028715760
310.54	-0.026405748
310.72	-0.024711423
310.90	-0.021831673
311.08	-0.020890204
311.26	-0.023119478
311.44	-0.026088089
311.62	-0.027719216
311.80	-0.027440887
311.98	-0.028562229
312.16	-0.029147686
312.34	-0.028891260
312.52	-0.029554483
312.70	-0.029115845
312.88	-0.029303413
313.06	-0.030075742
313.24	-0.028707393
313.42	-0.029057046
313.60	-0.028646447
313.78	-0.028073177
313.96	-0.026535712
314.14	-0.023001842
314.32	-0.017753322
314.50	-0.015061527
314.68	-0.018068647
314.86	-0.023292653
315.04	-0.026706057
315.22	-0.027544826
315.40	-0.029140009
315.58	-0.029021502
315.76	-0.029965732
315.94	-0.028774044
316.12	-0.028973332
316.30	-0.028773041
316.48	-0.028535854
316.66	-0.027615225
316.84	-0.028419858
317.02	-0.027463274
317.20	-0.027447090
317.38	-0.028446374
317.56	-0.029048307
317.74	-0.028315362
317.92	-0.029507957
318.10	-0.028343085
318.28	-0.028504813
318.46	-0.030236848
318.64	-0.028247222
318.82	-0.027771320
319.00	-0.029473681
319.18	-0.029607646
319.36	-0.029158629
319.54	-0.027702972
319.72	-0.028482143
319.90	-0.028640879
320.08	-0.028050970
320.26	-0.028796790
320.44	-0.027845308
320.62	-0.027336117
320.80	-0.028856337
320.98	-0.029714495
321.16	-0.029316895
321.34	-0.029790007
321.52	-0.029541200
321.70	-0.029207464
321.88	-0.028924726
322.06	-0.028188253
322.24	-0.028620511
322.42	-0.029709380
322.60	-0.028845895
322.78	-0.029346703
322.96	-0.030340111
323.14	-0.029226480
323.32	-0.028826052
323.50	-0.029904597
323.68	-0.028651601
323.86	-0.028701831
324.04	-0.029477566
324.22	-0.029946402
324.40	-0.030824641
324.58	-0.028987462
324.76	-0.028838599
324.94	-0.028391991
325.12	-0.030014265
325.30	-0.028515706
325.48	-0.028895451
325.66	-0.028759573
325.84	-0.029338812
326.02	-0.028179280
326.20	-0.028740479
326.38	-0.029996404
326.56	-0.029343553
326.74	-0.028966056
326.92	-0.028443931
327.10	-0.028948935
327.28	-0.030256758
327.46	-0.028670760
327.64	-0.029496994
327.82	-0.027729478
328.00	-0.022066101
328.18	-0.013871294
328.36	0.000621303
328.54	0.016308276
328.72	0.032847721
328.90	0.052353192
329.08	0.057488114
329.26	0.038014568
329.44	0.007192599
329.62	-0.019002270
329.80	-0.027188731
329.98	-0.028277721
330.16	-0.030028705
330.34	-0.030269081
330.52	-0.029724624
330.70	-0.029931843
330.88	-0.029839942
331.06	-0.029128091
331.24	-0.028299425
331.42	-0.028294910
331.60	-0.030251086
331.78	-0.029377142
331.96	-0.029397579
332.14	-0.029159274
332.32	-0.028657034
332.50	-0.029134832
332.68	-0.029560069
332.86	-0.028926853
333.04	-0.029503126
333.22	-0.029162664
333.40	-0.028199295
333.58	-0.029648110
333.76	-0.029645115
333.94	-0.029815424
334.12	-0.028999425
334.30	-0.029979888
334.48	-0.029062387
334.66	-0.030110247
334.84	-0.029557128
335.02	-0.029920112
335.20	-0.029659769
335.38	-0.028973663
335.56	-0.028678859
335.74	-0.029836383
335.92	-0.029575203
336.10	-0.029194789
336.28	-0.028800245
336.46	-0.028555550
336.64	-0.029449401
336.82	-0.029596763
337.00	-0.029645339
337.18	-0.029718783
337.36	-0.030296398
337.54	-0.028855391
337.72	-0.029609647
337.90	-0.029099453
338.08	-0.028887080
338.26	-0.029461976
338.44	-0.029263290
338.62	-0.028668074
338.80	-0.029174594
338.98	-0.029528404
339.16	-0.029221937
339.34	-0.029058391
339.52	-0.028261175
339.70	-0.028962301
339.88	-0.029052669
340.06	-0.029088603
340.24	-0.028934821
340.42	-0.028118590
340.60	-0.029860210
340.78	-0.029958721
340.96	-0.030389924
341.14	-0.028683141
341.32	-0.029123103
341.50	-0.028779907
341.68	-0.030461801
341.86	-0.030264262
342.04	-0.028722113
342.22	-0.029258201
342.40	-0.027799854
342.58	-0.028671887
342.76	-0.028971583
342.94	-0.029975347
343.12	-0.029432902
343.30	-0.029061368
343.48	-0.029317927
343.66	-0.028570386
343.84	-0.029636910
344.02	-0.028898753
344.20	-0.029068377
344.38	-0.029521979
344.56	-0.028245492
344.74	-0.029370014
344.92	-0.028669177
345.10	-0.028892171
345.28	-0.029209778
345.46	-0.028841922
345.64	-0.028869411
345.82	-0.028954333
346.00	-0.029269030
346.18	-0.029758561
346.36	-0.028941838
346.54	-0.029114241
346.72	-0.028974170
346.90	-0.028555753
347.08	-0.028810697
347.26	-0.029053766
347.44	-0.028483514
347.62	-0.029095672
347.80	-0.028052067
347.98	-0.030192830
348.16	-0.028278694
348.34	-0.029453885
348.52	-0.028981373
348.70	-0.028372034
348.88	-0.028391147
349.06	-0.028701510
349.24	-0.030284183
349.42	-0.028622247
349.60	-0.029817404
349.78	-0.028094152
349.96	-0.028581757
350.14	-0.029209033
350.32	-0.028321143
350.50	-0.029053755
350.68	-0.028794693
350.86	-0.028347468
351.04	-0.028201204
351.22	-0.029198576
351.40	-0.027914273
351.58	-0.027687382
351.76	-0.029038761
351.94	-0.028914349
352.12	-0.028853513
352.30	-0.029899681
352.48	-0.029765125
352.66	-0.028975138
352.84	-0.027598916
353.02	-0.029586069
353.20	-0.028079519
353.38	-0.028696679
353.56	-0.027800681
353.74	-0.028121861
353.92	-0.028588856
354.10	-0.028068762
354.28	-0.029210513
354.46	-0.029138688
354.64	-0.028777061
354.82	-0.029338079
355.00	-0.029022722
355.18	-0.028723927
355.36	-0.028429231
355.54	-0.028803639
355.72	-0.028950252
355.90	-0.028801918
356.08	-0.028118089
356.26	-0.028973011
356.44	-0.028005946
356.62	-0.028218230
356.80	-0.028687166
356.98	-0.028793525
357.16	-0.028620351
357.34	-0.028719764
357.52	-0.028513528
357.70	-0.028852664
357.88	-0.028781753
358.06	-0.028403053
358.24	-0.029001296
358.42	-0.029276300
358.60	-0.028537137
358.78	-0.028539795
358.96	-0.029037025
359.14	-0.028877856
359.32	-0.028270416
359.50	-0.028437240
359.68	-0.029389769
359.86	-0.028766776
360.04	-0.028375499
360.22	-0.028597770
360.40	-0.028551660
360.58	-0.028382285
360.76	-0.028145185
360.94	-0.028792961
361.12	-0.029064214
361.30	-0.028216962
361.48	-0.028969778
361.66	-0.029675353
361.84	-0.029164258
362.02	-0.028911803
362.20	-0.029427413
362.38	-0.028144199
362.56	-0.029015971
362.74	-0.029307362
362.92	-0.028934753
363.10	-0.028046230
363.28	-0.028915785
363.46	-0.028840598
363.64	-0.028348185
363.82	-0.029350476
364.00	-0.029371670
364.18	-0.027904529
364.36	-0.028018551
364.54	-0.028667102
364.72	-0.028990395
364.90	-0.028779987
365.08	-0.028661711
365.26	-0.027130088
365.44	-0.026597645
365.62	-0.026323166
365.80	-0.024987707
365.98	-0.026326017
366.16	-0.027688971
366.34	-0.028637309
366.52	-0.029040687
366.70	-0.029143237
366.88	-0.027995307
367.06	-0.028172825
367.24	-0.029088907
367.42	-0.028940637
367.60	-0.028651776
367.78	-0.028797477
367.96	-0.028772356
368.14	-0.028606061
368.32	-0.028351732
368.50	-0.028444186
368.68	-0.029213794
368.86	-0.028888270
369.04	-0.029566562
369.22	-0.028874522
369.40	-0.029635658
369.58	-0.028950913
369.76	-0.028619487
369.94	-0.028359631
370.12	-0.029530892
370.30	-0.028124953
370.48	-0.028558791
370.66	-0.027588679
370.84	-0.028539097
371.02	-0.028323926
371.20	-0.027864896
371.38	-0.029121723
371.56	-0.029412946
371.74	-0.028764250
371.92	-0.029379491
372.10	-0.029461961
372.28	-0.028923532
372.46	-0.030176999
372.64	-0.029431578
372.82	-0.028771419
373.00	-0.028203268
373.18	-0.029615682
373.36	-0.028372576
373.54	-0.028768791
373.72	-0.029075254
373.90	-0.028728172
374.08	-0.028952386
374.26	-0.028909685
374.44	-0.029302647
374.62	-0.028995467
374.80	-0.028687948
374.98	-0.028836925
375.16	-0.028800245
375.34	-0.028407963
375.52	-0.028535221
375.70	-0.028864464
375.88	-0.028966498
376.06	-0.029156325
376.24	-0.028971726
376.42	-0.028630346
376.60	-0.028865650
376.78	-0.028324092
376.96	-0.028533725
377.14	-0.028462373
377.32	-0.027115621
377.50	-0.025984045
377.68	-0.023936294
377.86	-0.023410786
378.04	-0.022517150
378.22	-0.023281826
378.40	-0.024813257
378.58	-0.026527528
378.76	-0.027662925
378.94	-0.028112272
379.12	-0.027593385
379.30	-0.027714256
379.48	-0.027813204
379.66	-0.028303105
379.84	-0.029422266
380.02	-0.027939102
380.20	-0.028266635
380.38	-0.027361196
380.56	-0.027740415
380.74	-0.026853403
380.92	-0.026900962
381.10	-0.026681254
381.28	-0.026982173
381.46	-0.026606474
381.64	-0.027031003
381.82	-0.027229194
382.00	-0.026788842
382.18	-0.026697628
382.36	-0.027194211
382.54	-0.027704446
382.72	-0.027273150
382.90	-0.027475262
383.08	-0.028987704
383.26	-0.028187636
383.44	-0.027967783
383.62	-0.028236439
383.80	-0.028271889
383.98	-0.027841883
384.16	-0.028114988
384.34	-0.028439963
384.52	-0.028680099
384.70	-0.028713318
384.88	-0.028888738
385.06	-0.028703315
385.24	-0.028248146
385.42	-0.027688624
385.60	-0.028901868
385.78	-0.028192686
385.96	-0.027967896
386.14	-0.028913660
386.32	-0.027832590
386.50	-0.027657310
386.68	-0.027927002
386.86	-0.026580635
387.04	-0.026455339
387.22	-0.024211943
387.40	-0.023839463
387.58	-0.022827711
387.76	-0.020911349
387.94	-0.021901643
388.12	-0.023338813
388.30	-0.023353789
388.48	-0.025375290
388.66	-0.026732890
388.84	-0.027194690
389.02	-0.028033817
389.20	-0.027343698
389.38	-0.028103892
389.56	-0.028662581
389.74	-0.028731182
389.92	-0.028595500
390.10	-0.028964851
390.28	-0.028552461
390.46	-0.029237082
390.64	-0.028292390
390.82	-0.028953142
391.00	-0.028213931
391.18	-0.029023137
391.36	-0.028869728
391.54	-0.028939901
391.72	-0.028941903
391.90	-0.028727731
392.08	-0.029571358
392.26	-0.028355410
392.44	-0.028651079
392.62	-0.029578628
392.80	-0.029431030
392.98	-0.029020000
393.16	-0.029636990
393.34	-0.028913395
393.52	-0.029454939
393.70	-0.029310122
393.88	-0.029743720
394.06	-0.029843001
394.24	-0.029574212
394.42	-0.029501025
394.60	-0.029452238
394.78	-0.029111024
394.96	-0.028968925
395.14	-0.029319882
395.32	-0.029361516
395.50	-0.029182687
395.68	-0.029097809
395.86	-0.030019604
396.04	-0.029591264
396.22	-0.029493412
396.40	-0.029506493
396.58	-0.030047761
396.76	-0.029285789
396.94	-0.029435838
397.12	-0.029004464
397.30	-0.029379372
397.48	-0.029695211
397.66	-0.029077293
397.84	-0.029266905
398.02	-0.029467203
398.20	-0.029649828
398.38	-0.030317856
398.56	-0.028807033
398.74	-0.029476598
398.92	-0.029372150
399.10	-0.029122861
399.28	-0.029286195
399.46	-0.029545248
399.64	-0.029443281
399.82	-0.029821238
400.00	-0.029381694
400.18	-0.029424010
400.36	-0.029840019
400.54	-0.029774584
400.72	-0.029372688
400.90	-0.028698968
401.08	-0.029912096
401.26	-0.029581649
401.44	-0.029372780
401.62	-0.029777993
401.80	-0.029993160
401.98	-0.029924490
402.16	-0.029619053
402.34	-0.029536627
402.52	-0.029266430
402.70	-0.029299956
402.88	-0.029643688
403.06	-0.029065620
403.24	-0.029803958
403.42	-0.030178107
403.60	-0.029586971
403.78	-0.029233005
403.96	-0.029152760
404.14	-0.030000357
404.32	-0.029151727
404.50	-0.029069507
404.68	-0.029428095
404.86	-0.029969465
405.04	-0.029320952
405.22	-0.029621786
405.40	-0.029157422
405.58	-0.029334676
405.76	-0.029784570
405.94	-0.028832717
406.12	-0.029766724
406.30	-0.029686011
406.48	-0.029362096
406.66	-0.029504279
406.84	-0.029579321
407.02	-0.029651867
407.20	-0.029152276
407.38	-0.029810321
407.56	-0.029356690
407.74	-0.028980907
407.92	-0.029716197
408.10	-0.029314030
408.28	-0.029392071
408.46	-0.029638680
408.64	-0.029719362
408.82	-0.029225973
409.00	-0.028687431
409.18	-0.029064063
409.36	-0.029083420
409.54	-0.029615747
409.72	-0.029584184
409.90	-0.029307188
410.08	-0.029503610
410.26	-0.028382542
410.44	-0.029207449
410.62	-0.028557118
410.80	-0.028796893
410.98	-0.029522533
411.16	-0.029364124
411.34	-0.029814817
411.52	-0.029480029
411.70	-0.029355541
411.88	-0.029534897
412.06	-0.029810468
412.24	-0.029118136
412.42	-0.029600509
412.60	-0.029546544
412.78	-0.028890846
412.96	-0.028917916
413.14	-0.029519936
413.32	-0.029449066
413.50	-0.029135093
413.68	-0.028852344
413.86	-0.028931247
414.04	-0.029147705
414.22	-0.029226853
414.40	-0.029172691
414.58	-0.028651705
414.76	-0.029163089
414.94	-0.029048173
415.12	-0.029355494
415.30	-0.028693506
415.48	-0.028560057
415.66	-0.029082553
415.84	-0.028370537
416.02	-0.028019005
416.20	-0.028420379
416.38	-0.028291371
416.56	-0.027777322
416.74	-0.026841290
416.92	-0.026419144
417.10	-0.024610505
417.28	-0.022038156
417.46	-0.017790053
417.64	-0.011134272
417.82	-0.006991961
418.00	-0.007232491
418.18	-0.011026796
418.36	-0.016534399
418.54	-0.021898003
418.72	-0.024621913
418.90	-0.025516992
419.08	-0.026632898
419.26	-0.028015032
419.44	-0.028330201
419.62	-0.028346479
419.80	-0.028596219
419.98	-0.028085791
420.16	-0.029038761
420.34	-0.028274592
420.52	-0.028709358
420.70	-0.028175704
420.88	-0.028350906
421.06	-0.029072601
421.24	-0.028999347
421.42	-0.028270695
421.60	-0.028610948
421.78	-0.028801812
421.96	-0.028621621
422.14	-0.028629974
422.32	-0.029093586
422.50	-0.028432895
422.68	-0.028751316
422.86	-0.029111043
423.04	-0.029042533
423.22	-0.028330192
423.40	-0.028959842
423.58	-0.028775590
423.76	-0.029012855
423.94	-0.029470023
424.12	-0.028384406
424.30	-0.029103979
424.48	-0.028902674
424.66	-0.028880024
424.84	-0.029099582
425.02	-0.029338617
425.20	-0.028814752
425.38	-0.029366447
425.56	-0.029231044
425.74	-0.029281884
425.92	-0.028963629
426.10	-0.028547928
426.28	-0.028359933
426.46	-0.029413184
426.64	-0.029095516
426.82	-0.028930925
427.00	-0.028879164
427.18	-0.029052509
427.36	-0.029171187
427.54	-0.028827999
427.72	-0.029018557
427.90	-0.028693739
428.08	-0.029102469
428.26	-0.028771212
428.44	-0.028905010
428.62	-0.029014753
428.80	-0.028530523
428.98	-0.028625187
429.16	-0.028883573
429.34	-0.028829867
429.52	-0.029004123
429.70	-0.029069502
429.88	-0.028830603
430.06	-0.028536687
430.24	-0.028823014
430.42	-0.028802630
430.60	-0.029135199
430.78	-0.028737457
430.96	-0.028952915
431.14	-0.028861536
431.32	-0.028491849
431.50	-0.029169325
431.68	-0.028600175
431.86	-0.028897133
432.04	-0.028636917
432.22	-0.028662844
432.40	-0.028826509
432.58	-0.028429782
432.76	-0.028903870
432.94	-0.028638696
433.12	-0.028642721
433.30	-0.028717037
433.48	-0.028508792
433.66	-0.028756883
433.84	-0.028457638
434.02	-0.028612735
434.20	-0.028559370
434.38	-0.028683856
434.56	-0.029007088
434.74	-0.028532002
434.92	-0.028450958
435.10	-0.028345052
435.28	-0.028544353
435.46	-0.028631493
435.64	-0.028367341
435.82	-0.028279899
436.00	-0.028686522
436.18	-0.028683495
436.36	-0.028373079
436.54	-0.028455447
436.72	-0.028351327
436.90	-0.027934581
437.08	-0.028017865
437.26	-0.027758297
437.44	-0.028060585
437.62	-0.027957015
437.80	-0.027234748
437.98	-0.027865801
438.16	-0.027484747
438.34	-0.027275635
438.52	-0.027415715
438.70	-0.027482832
438.88	-0.027106008
439.06	-0.027470611
439.24	-0.026795477
439.42	-0.027738838
439.60	-0.027174167
439.78	-0.027100179
439.96	-0.027459828
440.14	-0.027429555
440.32	-0.027316514
440.50	-0.026783437
440.68	-0.026970427
440.86	-0.027938675
441.04	-0.027166374
441.22	-0.027652089
441.40	-0.027826760
441.58	-0.027690336
441.76	-0.027912028
441.94	-0.028083485
442.12	-0.027726481
442.30	-0.028155573
442.48	-0.028218780
442.66	-0.028118320
442.84	-0.028471965
443.02	-0.028099980
443.20	-0.028546402
443.38	-0.028154310
443.56	-0.027984718
443.74	-0.028025825
443.92	-0.028249566
444.10	-0.028427446
444.28	-0.028220735
444.46	-0.028211979
444.64	-0.028194737
444.82	-0.028173393
445.00	-0.028496964
445.18	-0.028581204
445.36	-0.028212106
445.54	-0.028049510
445.72	-0.028609442
445.90	-0.028414110
446.08	-0.028453225
446.26	-0.028249068
446.44	-0.029013895
446.62	-0.028264873
446.80	-0.028234746
446.98	-0.028504431
447.16	-0.028245052
447.34	-0.028563498
447.52	-0.028424140
447.70	-0.028322695
447.88	-0.028382128
448.06	-0.028436165
448.24	-0.028785620
448.42	-0.028561398
448.60	-0.028615896
448.78	-0.028047081
448.96	-0.028246321
449.14	-0.028468840
449.32	-0.028360423
449.50	-0.028308772
449.68	-0.028500013
449.86	-0.028265297
450.04	-0.027921584
450.22	-0.028332960
450.40	-0.028629022
450.58	-0.028578615
450.76	-0.028195515
450.94	-0.028091727
451.12	-0.028292352
451.30	-0.028297642
451.48	-0.027850023
451.66	-0.027969018
451.84	-0.027641065
452.02	-0.028042618
452.20	-0.027714835
452.38	-0.028066555
452.56	-0.027902434
452.74	-0.028103767
452.92	-0.027673645
453.10	-0.028025795
453.28	-0.028039752
453.46	-0.027757041
453.64	-0.028268475
453.82	-0.027792212
454.00	-0.027882112
454.18	-0.028001569
454.36	-0.028312709
454.54	-0.028274607
454.72	-0.028342824
454.90	-0.027922474
455.08	-0.028011426
455.26	-0.028187653
455.44	-0.028221795
455.62	-0.028076975
455.80	-0.028536407
455.98	-0.028295262
456.16	-0.028339526
456.34	-0.028368169
456.52	-0.028589120
456.70	-0.028577214
456.88	-0.029027745
457.06	-0.028533230
457.24	-0.028393362
457.42	-0.028543111
457.60	-0.028651854
457.78	-0.028408494
457.96	-0.028376205
458.14	-0.028709736
458.32	-0.028244689
458.50	-0.028746054
458.68	-0.028900633
458.86	-0.028644891
459.04	-0.028658070
459.22	-0.028276373
459.40	-0.028700190
459.58	-0.028574659
459.76	-0.028435854
459.94	-0.028787483
460.12	-0.028408753
460.30	-0.028653245
460.48	-0.028553154
460.66	-0.028571265
460.84	-0.028719105
461.02	-0.028941896
461.20	-0.028627463
461.38	-0.029053178
461.56	-0.028996367
461.74	-0.029017746
461.92	-0.028534332
462.10	-0.028339989
462.28	-0.028427213
462.46	-0.028345268
462.64	-0.028905883
462.82	-0.028484749
463.00	-0.028462730
463.18	-0.028493308
463.36	-0.028881595
463.54	-0.028793802
463.72	-0.028596828
463.90	-0.028621608
464.08	-0.028557176
464.26	-0.028516721
464.44	-0.028889921
464.62	-0.028250718
464.80	-0.028443892
464.98	-0.028089138
465.16	-0.028344972
465.34	-0.028452620
465.52	-0.028416587
465.70	-0.027963700
465.88	-0.027980641
466.06	-0.028386701
466.24	-0.028144350
466.42	-0.027749691
466.60	-0.027706172
466.78	-0.028277649
466.96	-0.028045258
467.14	-0.027895527
467.32	-0.027375016
467.50	-0.027064756
467.68	-0.026987921
467.86	-0.027205879
468.04	-0.026384950
468.22	-0.026080152
468.40	-0.025613170
468.58	-0.024874698
468.76	-0.024626940
468.94	-0.023621805
469.12	-0.022557288
469.30	-0.021104295
469.48	-0.020431198
469.66	-0.018110709
469.84	-0.017721334
470.02	-0.017487425
470.20	-0.018532332
470.38	-0.019936416
470.56	-0.021423670
470.74	-0.022952205
470.92	-0.024069620
471.10	-0.024888009
471.28	-0.026036596
471.46	-0.026839191
471.64	-0.026905714
471.82	-0.027580258
472.00	-0.027233565
472.18	-0.027966060
472.36	-0.027930267
472.54	-0.028074326
472.72	-0.028316086
472.90	-0.028103864
473.08	-0.028370885
473.26	-0.028101325
473.44	-0.028574072
473.62	-0.028665107
473.80	-0.028739052
473.98	-0.028720865
474.16	-0.028937202
474.34	-0.028794378
474.52	-0.028390022
474.70	-0.028785257
474.88	-0.028338863
475.06	-0.028928075
475.24	-0.028668329
475.42	-0.028484810
475.60	-0.028759610
475.78	-0.028847154
475.96	-0.028845524
476.14	-0.028911974
476.32	-0.028674480
476.50	-0.028765524
476.68	-0.028702239
476.86	-0.028513150
477.04	-0.028499650
477.22	-0.028508374
477.40	-0.028657215
477.58	-0.028576810
477.76	-0.028633496
477.94	-0.028852766
478.12	-0.028348600
478.30	-0.028600434
478.48	-0.028409980
478.66	-0.028748455
478.84	-0.028444303
479.02	-0.028555200
479.20	-0.028507886
479.38	-0.028585596
479.56	-0.028658608
479.74	-0.028882278
